Sample	2mm tape 
date	07/01/2025
	
Temperature (K)	77.00
Angle (deg.)	0.000000
field / T	0.200000
	
		
Approx. trace time (s)	120.0	
		
Current / A	V1  -sample/ uV	time/s
-0.018069	-0.504996	0.000000
-0.018249	-0.493913	0.045000
-0.018182	-0.482130	0.091000
-0.018298	-0.417898	0.138000
-0.019077	-0.397984	0.307000
-0.018194	-0.378331	0.354000
-0.018665	-0.361235	0.399000
-0.018377	-0.346166	0.446000
-0.018912	-0.324551	0.492000
-0.018457	-0.307966	0.538000
-0.018506	-0.293872	0.584000
-0.010049	-0.246642	0.759000
0.018671	-0.236137	0.805000
0.045061	-0.221914	0.851000
0.069139	-0.216689	0.897000
0.094826	-0.212414	0.943000
0.118028	-0.200202	0.989000
0.143773	-0.190553	1.035000
0.168263	-0.173731	1.082000
0.193700	-0.164993	1.128000
0.219255	-0.155929	1.174000
0.244963	-0.153791	1.220000
0.328658	-0.103716	1.267000
0.354124	-0.087586	1.423000
0.378766	-0.067127	1.468000
0.403778	-0.048078	1.515000
0.428951	-0.024689	1.562000
0.454125	0.002241	1.607000
0.478473	0.023994	1.652000
0.565783	0.055681	1.699000
0.591287	0.164553	1.860000
0.615886	0.198251	1.906000
0.640746	0.237273	1.952000
0.664915	0.275017	1.998000
0.690010	0.307026	2.044000
0.715077	0.337300	2.090000
0.740921	0.364696	2.137000
0.765942	0.387120	2.183000
0.791038	0.397429	2.228000
0.816243	0.407225	2.275000
0.841369	0.416740	2.322000
0.924733	0.396115	2.368000
0.949754	0.381912	2.524000
0.974491	0.364907	2.569000
0.999545	0.342538	2.615000
1.024386	0.317656	2.660000
1.049534	0.291879	2.706000
1.073980	0.262339	2.752000
1.161728	0.236177	2.797000
1.186619	0.156580	2.960000
1.210956	0.134378	3.006000
1.235869	0.118888	3.052000
1.260841	0.100240	3.098000
1.286284	0.090110	3.144000
1.311387	0.080441	3.189000
1.336612	0.077803	3.236000
1.361796	0.082653	3.281000
1.386977	0.089919	3.328000
1.410798	0.103308	3.374000
1.435115	0.121251	3.421000
1.635023	0.305831	3.466000
1.660039	0.300298	3.834000
1.756443	0.302962	3.881000
1.781451	0.269505	4.059000
1.806891	0.266231	4.106000
1.832288	0.259788	4.152000
1.857653	0.252228	4.198000
1.882274	0.249425	4.244000
1.907559	0.249956	4.290000
1.932498	0.247819	4.337000
1.957009	0.251878	4.382000
1.981290	0.253162	4.428000
2.006460	0.254816	4.475000
2.031887	0.260740	4.520000
2.116134	0.268744	4.566000
2.141523	0.266021	4.722000
2.166472	0.264886	4.769000
2.190584	0.268080	4.814000
2.215653	0.264137	4.861000
2.240262	0.269275	4.906000
2.265481	0.270099	4.951000
2.467099	0.267810	4.998000
2.492218	0.232248	5.372000
2.517516	0.229632	5.418000
2.542487	0.227604	5.464000
2.567974	0.230878	5.509000
2.593167	0.238320	5.556000
2.618018	0.250512	5.601000
2.703885	0.286045	5.647000
2.728796	0.293547	5.807000
2.752949	0.301234	5.853000
2.777935	0.308699	5.899000
2.803152	0.317475	5.945000
2.828295	0.327995	5.991000
2.853550	0.341244	6.037000
2.948366	0.354102	6.084000
2.973988	0.414121	6.260000
2.999401	0.435400	6.306000
3.023883	0.456758	6.352000
3.048849	0.474371	6.398000
3.073044	0.495161	6.444000
3.098565	0.513173	6.491000
3.123535	0.525490	6.537000
3.149090	0.531380	6.582000
3.173950	0.542787	6.629000
3.199452	0.549743	6.676000
3.224834	0.555775	6.722000
3.307585	0.593166	6.768000
3.333092	0.607090	6.924000
3.357796	0.627375	6.970000
3.383246	0.642034	7.016000
3.408412	0.669555	7.062000
3.433538	0.701510	7.108000
3.458851	0.725582	7.154000
3.544569	0.759096	7.200000
3.569398	0.839189	7.359000
3.593553	0.845320	7.406000
3.618871	0.845595	7.452000
3.643908	0.845965	7.497000
3.669197	0.840023	7.544000
3.693958	0.833921	7.590000
3.719307	0.831257	7.636000
3.744900	0.833376	7.682000
3.769102	0.837464	7.728000
3.793468	0.859004	7.774000
3.818385	0.877464	7.820000
3.903330	0.887913	7.867000
3.928173	0.873490	8.022000
3.953238	0.863151	8.068000
3.977958	0.850082	8.114000
4.002120	0.838478	8.159000
4.026682	0.833831	8.205000
4.051523	0.824636	8.250000
4.139496	0.818714	8.296000
4.164424	0.811507	8.459000
4.189813	0.815451	8.506000
4.214902	0.824766	8.552000
4.240398	0.833751	8.598000
4.265284	0.848573	8.644000
4.290417	0.860537	8.690000
4.315682	0.877023	8.737000
4.340080	0.887468	8.783000
4.364509	0.898905	8.829000
4.389698	0.906908	8.875000
4.415150	0.927463	8.921000
4.614347	0.905971	8.968000
4.639595	0.894115	9.336000
4.735498	0.899599	9.382000
4.760579	0.899930	9.559000
4.785949	0.901811	9.606000
4.810724	0.900120	9.651000
4.835715	0.901537	9.697000
4.860065	0.906916	9.743000
4.884639	0.907177	9.789000
4.909475	0.922287	9.835000
4.934703	0.925975	9.880000
4.960052	0.935414	9.927000
4.985066	0.935755	9.973000
5.009860	0.938228	10.019000
5.093452	0.915441	10.065000
5.118197	0.900485	10.220000
5.143834	0.890322	10.267000
5.168750	0.887873	10.313000
5.193873	0.886368	10.359000
5.218987	0.890971	10.406000
5.244443	0.898174	10.452000
5.446581	0.905410	10.498000
5.471731	0.924910	10.872000
5.496611	0.920871	10.918000
5.521693	0.912768	10.964000
5.546895	0.913753	11.010000
5.571484	0.915110	11.057000
5.595903	0.918709	11.102000
5.682008	0.947631	11.149000
5.706539	0.952606	11.307000
5.731930	0.967976	11.353000
5.757110	0.978126	11.399000
5.782284	0.990212	11.445000
5.807304	1.000623	11.491000
5.832215	1.014352	11.537000
5.927705	1.023671	11.583000
5.951627	1.037070	11.758000
5.976808	1.035813	11.805000
6.001408	1.030347	11.851000
6.026090	1.023561	11.896000
6.051288	1.015718	11.943000
6.076457	1.003791	11.988000
6.101558	0.994402	12.035000
6.126608	0.981324	12.081000
6.150963	0.971315	12.127000
6.175476	0.960599	12.172000
6.200947	0.953498	12.218000
6.285288	0.915794	12.265000
6.310939	0.903037	12.421000
6.335741	0.892920	12.467000
6.360239	0.878777	12.513000
6.384902	0.867807	12.559000
6.409992	0.860660	12.605000
6.435277	0.854245	12.651000
6.522205	0.845483	12.697000
6.547459	0.825529	12.859000
6.572453	0.826338	12.905000
6.597318	0.823020	12.951000
6.622658	0.822915	12.997000
6.647864	0.816324	13.043000
6.673048	0.809668	13.090000
6.697516	0.799732	13.135000
6.722167	0.786409	13.181000
6.746980	0.770719	13.227000
6.772655	0.761333	13.274000
6.797864	0.752367	13.321000
6.882376	0.722837	13.366000
6.907707	0.722677	13.522000
6.931602	0.723032	13.568000
6.955726	0.720803	13.613000
6.981071	0.729064	13.659000
7.005771	0.722288	13.705000
7.030715	0.724687	13.751000
7.118187	0.720039	13.797000
7.143424	0.731088	13.960000
7.168624	0.729425	14.005000
7.194197	0.733148	14.051000
7.218260	0.737145	14.097000
7.242895	0.737435	14.143000
7.267753	0.737994	14.189000
7.292864	0.732437	14.235000
7.317683	0.728934	14.281000
7.343196	0.724336	14.328000
7.368351	0.721274	14.374000
7.393252	0.712218	14.420000
7.592724	0.681942	14.466000
7.618050	0.674009	14.834000
7.715451	0.665446	14.880000
7.740122	0.643599	15.059000
7.764967	0.646497	15.106000
7.789868	0.643850	15.151000
7.813868	0.651493	15.198000
7.839560	0.650657	15.244000
7.864893	0.654345	15.290000
7.889895	0.658399	15.336000
7.915433	0.651653	15.383000
7.940381	0.670180	15.428000
7.965493	0.677257	15.475000
7.989784	0.686080	15.521000
8.073661	0.733189	15.567000
8.098868	0.753727	15.723000
8.124176	0.765841	15.768000
8.149388	0.778094	15.815000
8.174260	0.782786	15.861000
8.199224	0.781569	15.906000
8.222824	0.778770	15.952000
8.425853	0.766380	15.998000
8.450625	0.701070	16.371000
8.475915	0.687135	16.418000
8.500260	0.672733	16.464000
8.524818	0.658289	16.510000
8.550089	0.645912	16.556000
8.575210	0.634371	16.602000
8.661272	0.589377	16.649000
8.686824	0.575773	16.806000
8.711686	0.578521	16.853000
8.736700	0.568231	16.899000
8.761250	0.580108	16.946000
8.785921	0.581850	16.992000
8.810815	0.581820	17.038000
8.905649	0.590213	17.083000
8.930834	0.608831	17.259000
8.956323	0.609622	17.305000
8.981605	0.617535	17.351000
9.006338	0.618540	17.397000
9.031531	0.618710	17.444000
9.056283	0.610037	17.489000
9.080526	0.602535	17.536000
9.105360	0.593861	17.582000
9.130369	0.587661	17.627000
9.155201	0.588121	17.673000
9.180430	0.592060	17.718000
9.265325	0.601714	17.765000
9.290167	0.602435	17.921000
9.314949	0.601964	17.968000
9.339929	0.603150	18.014000
9.365020	0.604607	18.060000
9.389816	0.610077	18.106000
9.414785	0.608881	18.152000
9.502027	0.604737	18.198000
9.527016	0.589017	18.359000
9.552634	0.587205	18.406000
9.577516	0.582905	18.452000
9.602405	0.586965	18.498000
9.626471	0.584823	18.544000
9.650946	0.578461	18.589000
9.676432	0.575168	18.636000
9.701378	0.574292	18.682000
9.726578	0.574747	18.727000
9.752028	0.578982	18.774000
9.776955	0.580754	18.820000
9.860356	0.615898	18.866000
9.884795	0.620773	19.021000
9.909755	0.638926	19.067000
9.934945	0.645191	19.113000
9.960201	0.658760	19.159000
9.984719	0.670131	19.204000
10.009377	0.685601	19.249000
10.098381	0.705847	19.295000
10.123188	0.769864	19.459000
10.147609	0.781963	19.505000
10.171854	0.784051	19.551000
10.197129	0.784101	19.597000
10.221869	0.788369	19.643000
10.247264	0.794311	19.689000
10.272424	0.800532	19.735000
10.297685	0.799583	19.781000
10.322403	0.804831	19.827000
10.347078	0.810793	19.873000
10.371570	0.811122	19.919000
10.570203	0.741667	19.965000
10.595458	0.728100	20.333000
10.620673	0.718154	20.379000
10.705017	0.713081	20.425000
10.730426	0.721472	20.580000
10.755331	0.717000	20.626000
10.779847	0.719669	20.673000
10.804177	0.726110	20.718000
10.829167	0.732377	20.765000
10.854372	0.740638	20.810000
10.879330	0.747261	20.856000
10.905005	0.753381	20.902000
10.929673	0.761917	20.949000
10.954767	0.773611	20.994000
11.044256	0.792241	21.041000
11.069467	0.789933	21.207000
11.094802	0.789514	21.253000
11.119995	0.781188	21.300000
11.144337	0.779864	21.346000
11.168509	0.776251	21.392000
11.193807	0.774402	21.437000
11.404308	0.770158	21.483000
11.428917	0.794381	21.872000
11.453464	0.801687	21.917000
11.478718	0.809258	21.964000
11.504057	0.816524	22.010000
11.529243	0.824020	22.056000
11.553756	0.837313	22.102000
11.640397	0.852650	22.148000
11.665488	0.846324	22.307000
11.690845	0.845454	22.354000
11.715860	0.838538	22.400000
11.740086	0.824485	22.446000
11.765296	0.810342	22.493000
11.790574	0.796380	22.539000
11.884920	0.771864	22.585000
11.910103	0.692678	22.759000
11.935032	0.673093	22.805000
11.960247	0.657613	22.851000
11.984377	0.632354	22.898000
12.009270	0.616893	22.943000
12.034252	0.600353	22.989000
12.059716	0.581710	23.036000
12.084593	0.563817	23.082000
12.109658	0.557075	23.128000
12.134838	0.549443	23.174000
12.159551	0.536736	23.219000
12.243484	0.520239	23.266000
12.268042	0.513798	23.421000
12.293520	0.512411	23.468000
12.318668	0.509243	23.514000
12.343537	0.510510	23.560000
12.369104	0.508873	23.606000
12.394269	0.513228	23.653000
12.480890	0.514069	23.698000
12.506249	0.515850	23.859000
12.530556	0.517747	23.906000
12.555029	0.514249	23.951000
12.580162	0.519739	23.997000
12.605336	0.516461	24.043000
12.630734	0.524233	24.090000
12.655787	0.528332	24.136000
12.681086	0.540529	24.183000
12.706289	0.542881	24.229000
12.731099	0.540649	24.275000
12.755515	0.546024	24.321000
12.875838	0.543674	24.367000
12.900317	0.535626	24.589000
12.925260	0.534295	24.635000
12.950396	0.542128	24.680000
12.975268	0.529240	24.726000
13.000522	0.523985	24.772000
13.082907	0.519791	24.818000
13.108049	0.490702	24.972000
13.133414	0.497940	25.018000
13.158418	0.494086	25.065000
13.184045	0.494531	25.111000
13.208748	0.486719	25.157000
13.233270	0.485322	25.202000
13.257277	0.484156	25.248000
13.281890	0.484306	25.294000
13.307142	0.488410	25.339000
13.331901	0.489807	25.386000
13.541973	0.581500	25.432000
13.567030	0.583178	25.819000
13.592411	0.587982	25.865000
13.712396	0.590414	25.911000
13.737093	0.580745	26.132000
13.762542	0.574013	26.179000
13.786824	0.570445	26.225000
13.811262	0.561376	26.271000
13.836693	0.556551	26.317000
13.862202	0.550240	26.364000
13.887439	0.544955	26.410000
13.912284	0.539715	26.457000
13.937690	0.543694	26.502000
14.023505	0.530135	26.549000
14.048513	0.527087	26.707000
14.072818	0.526666	26.753000
14.097087	0.527007	26.799000
14.122544	0.527292	26.845000
14.147615	0.531641	26.891000
14.173110	0.535099	26.938000
14.382208	0.541766	26.983000
14.407661	0.606399	27.372000
14.432494	0.620723	27.418000
14.458012	0.638556	27.463000
14.483284	0.648640	27.510000
14.507979	0.671317	27.556000
14.532350	0.688101	27.602000
14.618453	0.765561	27.648000
14.643206	0.786785	27.807000
14.668082	0.816939	27.853000
14.693052	0.833400	27.899000
14.718528	0.863611	27.945000
14.743562	0.889476	27.991000
14.769051	0.912848	28.038000
14.863735	0.934279	28.083000
14.889216	1.010664	28.259000
14.913767	1.028961	28.306000
14.938172	1.048865	28.351000
14.962832	1.068314	28.398000
14.988339	1.089284	28.444000
15.014243	1.106542	28.489000
15.039393	1.128236	28.536000
15.064719	1.145562	28.582000
15.088937	1.162514	28.628000
15.113489	1.183182	28.673000
15.138388	1.202634	28.719000
15.223148	1.256080	28.766000
15.248108	1.266900	28.922000
15.273319	1.276135	28.968000
15.298846	1.287343	29.014000
15.323491	1.295859	29.060000
15.348805	1.301556	29.106000
15.372784	1.313945	29.153000
15.460080	1.324765	29.199000
15.484258	1.338908	29.359000
15.509638	1.347382	29.405000
15.535177	1.341161	29.451000
15.559670	1.337382	29.497000
15.585282	1.331822	29.543000
15.610435	1.324314	29.590000
15.635308	1.319807	29.636000
15.659789	1.314789	29.681000
15.684027	1.309766	29.728000
15.709704	1.311496	29.774000
15.734063	1.303814	29.820000
15.819954	1.285579	29.866000
15.844730	1.272650	30.022000
15.869708	1.264740	30.068000
15.893748	1.246060	30.114000
15.917809	1.241192	30.159000
15.943126	1.224991	30.205000
15.967899	1.209299	30.251000
16.055805	1.196481	30.297000
16.080171	1.155007	30.458000
16.105447	1.151804	30.504000
16.130158	1.152263	30.550000
16.154933	1.144387	30.596000
16.179370	1.138020	30.641000
16.203527	1.124463	30.688000
16.229167	1.113028	30.734000
16.254126	1.101107	30.780000
16.279203	1.088714	30.826000
16.304443	1.078239	30.872000
16.329805	1.081393	30.918000
16.529077	1.143543	30.965000
16.554223	1.150019	31.333000
16.578904	1.159955	31.379000
16.662485	1.166861	31.425000
16.687445	1.197535	31.580000
16.713032	1.206820	31.626000
16.738303	1.214051	31.673000
16.763386	1.232581	31.719000
16.787908	1.243551	31.765000
16.812589	1.242206	31.810000
16.836617	1.242257	31.856000
16.861557	1.237369	31.901000
16.886690	1.229148	31.947000
16.911458	1.217604	31.994000
17.002180	1.225100	32.039000
17.026800	1.239433	32.207000
17.052267	1.251842	32.253000
17.077203	1.257444	32.299000
17.102347	1.267598	32.345000
17.127618	1.283860	32.391000
17.152482	1.286643	32.438000
17.362075	1.295154	32.484000
17.387642	1.218829	32.872000
17.412991	1.203337	32.918000
17.437446	1.192363	32.964000
17.462381	1.176066	33.010000
17.486610	1.165537	33.056000
17.512048	1.136087	33.102000
17.597771	1.049807	33.149000
17.623028	1.022145	33.307000
17.648549	1.006475	33.354000
17.673693	0.989028	33.400000
17.698956	0.979949	33.446000
17.723463	0.963753	33.492000
17.747836	0.954134	33.538000
17.842420	0.941491	33.584000
17.867280	0.904325	33.759000
17.892299	0.900476	33.805000
17.917099	0.903894	33.850000
17.942710	0.905902	33.896000
17.967314	0.904065	33.943000
17.992483	0.917263	33.989000
18.016898	0.920280	34.034000
18.041488	0.929605	34.079000
18.066298	0.933799	34.126000
18.091717	0.938964	34.172000
18.117028	0.933579	34.219000
18.201266	0.914074	34.265000
18.226299	0.894449	34.420000
18.250857	0.880787	34.466000
18.275436	0.868438	34.512000
18.300517	0.855479	34.558000
18.325454	0.843286	34.604000
18.351162	0.835849	34.650000
18.438281	0.820147	34.697000
18.463986	0.799119	34.859000
18.488556	0.791932	34.905000
18.514146	0.786190	34.951000
18.538873	0.778259	34.997000
18.563145	0.771393	35.044000
18.587834	0.766646	35.089000
18.612584	0.763263	35.135000
18.638261	0.751328	35.182000
18.663061	0.751018	35.227000
18.688180	0.755531	35.273000
18.712907	0.758885	35.319000
18.797218	0.789414	35.365000
18.821624	0.791633	35.521000
18.846146	0.805816	35.566000
18.871357	0.811858	35.612000
18.896277	0.828488	35.658000
18.921563	0.829997	35.703000
18.945983	0.841631	35.749000
19.034404	0.850092	35.794000
19.060151	0.879613	35.959000
19.084692	0.881346	36.005000
19.110319	0.879332	36.051000
19.133938	0.882480	36.098000
19.159435	0.883909	36.144000
19.184199	0.886859	36.190000
19.208965	0.888687	36.236000
19.234522	0.897568	36.282000
19.259299	0.911031	36.327000
19.284781	0.918860	36.374000
19.309722	0.933699	36.421000
19.509265	1.028416	36.466000
19.533790	1.049326	36.835000
19.630587	1.070016	36.881000
19.655210	1.172268	37.059000
19.679321	1.190429	37.105000
19.704161	1.214001	37.150000
19.729202	1.230212	37.197000
19.754759	1.252676	37.243000
19.779797	1.268063	37.288000
19.804888	1.286228	37.334000
19.829932	1.300351	37.381000
19.854886	1.307932	37.428000
19.879759	1.312055	37.473000
19.903960	1.311606	37.520000
19.989024	1.328878	37.566000
20.013820	1.341180	37.722000
20.039375	1.346481	37.767000
20.064335	1.359083	37.814000
20.088832	1.366755	37.859000
20.113484	1.380809	37.906000
20.137931	1.388972	37.951000
20.341216	1.400553	37.998000
20.365891	1.425632	38.371000
20.390621	1.425197	38.418000
20.415112	1.422023	38.464000
20.440117	1.426729	38.510000
20.465525	1.429831	38.556000
20.490732	1.428085	38.601000
20.577042	1.461443	38.648000
20.602104	1.471132	38.808000
20.627384	1.484955	38.854000
20.652073	1.495631	38.899000
20.676347	1.508728	38.945000
20.701514	1.515185	38.992000
20.726326	1.524974	39.038000
20.821793	1.532987	39.084000
20.846267	1.551073	39.259000
20.871883	1.555002	39.305000
20.896640	1.562847	39.351000
20.921789	1.557501	39.397000
20.945783	1.561455	39.443000
20.970320	1.562639	39.489000
20.995764	1.564172	39.535000
21.020614	1.568391	39.581000
21.045950	1.572112	39.627000
21.071006	1.576742	39.673000
21.096619	1.578204	39.719000
21.180674	1.583378	39.765000
21.205418	1.584057	39.922000
21.230050	1.589259	39.968000
21.254706	1.591669	40.014000
21.280184	1.595662	40.060000
21.305161	1.595172	40.106000
21.330618	1.597751	40.151000
21.417678	1.602348	40.198000
21.442511	1.602298	40.359000
21.468041	1.591103	40.405000
21.492248	1.584873	40.451000
21.517207	1.577926	40.498000
21.541769	1.570589	40.544000
21.567353	1.567267	40.590000
21.591885	1.557481	40.636000
21.617442	1.568401	40.682000
21.642267	1.578105	40.728000
21.667663	1.584903	40.774000
21.692496	1.585967	40.820000
21.775886	1.610368	40.866000
21.801330	1.620533	41.022000
21.826338	1.625675	41.068000
21.851199	1.630178	41.114000
21.876006	1.629639	41.159000
21.900391	1.635834	41.205000
21.924828	1.638849	41.251000
22.013597	1.639863	41.295000
22.038151	1.638453	41.459000
22.062483	1.636275	41.505000
22.087619	1.630503	41.552000
22.113011	1.634597	41.598000
22.137837	1.642910	41.644000
22.162894	1.654226	41.690000
22.188079	1.665880	41.736000
22.213188	1.675655	41.782000
22.237403	1.683976	41.827000
22.262382	1.686788	41.874000
22.286917	1.685794	41.920000
22.486329	1.587539	41.966000
22.512203	1.571813	42.333000
22.608408	1.556975	42.380000
22.634075	1.525379	42.559000
22.659140	1.519618	42.606000
22.684372	1.510980	42.651000
22.709415	1.504789	42.698000
22.734929	1.509003	42.744000
22.759734	1.513192	42.790000
22.784736	1.518453	42.837000
22.809131	1.530364	42.883000
22.834017	1.544379	42.929000
22.859138	1.545032	42.975000
22.884219	1.549799	43.021000
22.969233	1.560279	43.067000
22.993918	1.554048	43.223000
23.018368	1.562828	43.269000
23.042806	1.562279	43.314000
23.067984	1.561024	43.361000
23.092977	1.565591	43.407000
23.118113	1.569245	43.453000
23.319729	1.573742	43.499000
23.344990	1.667978	43.871000
23.369871	1.681566	43.917000
23.395130	1.696053	43.964000
23.420534	1.708797	44.010000
23.445515	1.722820	44.056000
23.470303	1.733339	44.102000
23.556447	1.756404	44.148000
23.580682	1.749512	44.307000
23.605202	1.749341	44.353000
23.630431	1.744523	44.399000
23.655690	1.733160	44.446000
23.681170	1.729286	44.491000
23.706032	1.719117	44.538000
23.801147	1.702954	44.584000
23.825869	1.681417	44.759000
23.850798	1.685564	44.805000
23.875321	1.690431	44.851000
23.899859	1.695610	44.897000
23.925368	1.714873	44.943000
23.949972	1.722160	44.989000
23.975237	1.731705	45.034000
23.999882	1.725894	45.080000
24.025034	1.721664	45.126000
24.048749	1.714300	45.172000
