Sample	2mm tape 
date	07/01/2025
	
Temperature (K)	77.00
Angle (deg.)	0.000000
field / T	0.100000
	
		
Approx. trace time (s)	120.0	
		
Current / A	V1  -sample/ uV	time/s
-0.018592	0.555633	0.000000
-0.019359	0.542966	0.092000
-0.018610	0.528432	0.138000
-0.018323	0.514428	0.184000
-0.018744	0.500314	0.230000
-0.018506	0.477948	0.277000
-0.019029	0.450283	0.322000
-0.019231	0.429053	0.369000
-0.018537	0.358430	0.547000
-0.018543	0.344512	0.593000
-0.018543	0.330924	0.638000
-0.018885	0.315847	0.685000
-0.018197	0.299495	0.731000
0.008061	0.288345	0.776000
0.031635	0.276831	0.821000
0.057655	0.265741	0.868000
0.081025	0.259972	0.914000
0.107652	0.253471	0.960000
0.131745	0.253096	1.006000
0.216975	0.249844	1.051000
0.241996	0.244568	1.208000
0.265515	0.239629	1.253000
0.290195	0.233106	1.299000
0.316216	0.225910	1.346000
0.341995	0.219454	1.392000
0.366972	0.211271	1.438000
0.454064	0.207282	1.483000
0.479101	0.218488	1.646000
0.504195	0.226451	1.692000
0.528358	0.235029	1.738000
0.552654	0.246375	1.783000
0.577571	0.257155	1.829000
0.602553	0.267835	1.875000
0.627753	0.275677	1.922000
0.652782	0.286961	1.968000
0.678377	0.293604	2.014000
0.703581	0.305028	2.060000
0.728666	0.315898	2.105000
0.927753	0.462430	2.153000
0.951793	0.470749	2.520000
0.976821	0.478277	2.566000
1.060236	0.478862	2.611000
1.085867	0.473847	2.766000
1.111088	0.468492	2.813000
1.136050	0.460041	2.859000
1.160948	0.454119	2.905000
1.185543	0.451860	2.951000
1.209931	0.453969	2.996000
1.234962	0.456618	3.043000
1.259802	0.464175	3.088000
1.285267	0.475443	3.134000
1.310126	0.487966	3.181000
1.399627	0.533057	3.228000
1.424052	0.541640	3.392000
1.449702	0.548081	3.437000
1.474577	0.554427	3.484000
1.499619	0.558892	3.530000
1.523941	0.564843	3.576000
1.548537	0.565193	3.622000
1.761145	0.565183	3.668000
1.786020	0.524418	4.059000
1.811261	0.517977	4.105000
1.835327	0.510830	4.151000
1.860224	0.505825	4.197000
1.885262	0.500285	4.244000
1.910195	0.494634	4.290000
1.995389	0.465239	4.336000
2.020740	0.449157	4.492000
2.045713	0.435428	4.538000
2.070289	0.420961	4.584000
2.095381	0.405445	4.631000
2.120090	0.391641	4.677000
2.145026	0.378263	4.723000
2.240925	0.364060	4.769000
2.265834	0.306640	4.946000
2.290818	0.294395	4.992000
2.316366	0.283916	5.038000
2.341269	0.276479	5.083000
2.366055	0.271771	5.130000
2.391178	0.267683	5.176000
2.415134	0.265566	5.222000
2.440165	0.262362	5.269000
2.465394	0.262292	5.315000
2.490751	0.258638	5.361000
2.515867	0.256713	5.407000
2.600382	0.243602	5.453000
2.625146	0.229768	5.609000
2.649623	0.220820	5.655000
2.674485	0.210329	5.701000
2.699537	0.203047	5.746000
2.724839	0.189288	5.793000
2.749927	0.181346	5.839000
2.837058	0.172367	5.885000
2.862505	0.136496	6.047000
2.887101	0.130150	6.093000
2.912417	0.124794	6.138000
2.936729	0.119194	6.184000
2.961415	0.112903	6.231000
2.986299	0.111887	6.277000
3.011537	0.113749	6.323000
3.037450	0.118389	6.370000
3.061906	0.123288	6.416000
3.087297	0.133749	6.462000
3.112461	0.143493	6.508000
3.196311	0.180630	6.553000
3.220943	0.185045	6.710000
3.245771	0.189288	6.756000
3.271297	0.193923	6.802000
3.296190	0.196576	6.849000
3.321596	0.197337	6.895000
3.346630	0.191701	6.941000
3.433047	0.186501	6.986000
3.458196	0.167602	7.146000
3.481684	0.164255	7.192000
3.506066	0.162197	7.238000
3.531038	0.158043	7.282000
3.556552	0.152012	7.329000
3.581889	0.146656	7.375000
3.606726	0.139714	7.421000
3.631915	0.134515	7.466000
3.656072	0.126907	7.512000
3.680873	0.119980	7.558000
3.705638	0.111426	7.605000
3.904517	-0.025298	7.651000
3.929462	-0.049750	8.019000
3.954932	-0.071362	8.065000
4.039273	-0.089087	8.111000
4.063207	-0.164930	8.265000
4.088009	-0.189064	8.311000
4.112468	-0.207227	8.357000
4.138135	-0.224227	8.403000
4.163258	-0.294970	8.450000
4.188361	-0.261188	8.495000
4.213317	-0.267734	8.541000
4.238471	-0.269080	8.587000
4.262987	-0.270487	8.633000
4.287032	-0.264496	8.679000
4.378528	-0.218227	8.725000
4.403701	-0.213097	8.893000
4.428809	-0.202181	8.938000
4.453177	-0.193303	8.985000
4.477844	-0.186742	9.031000
4.502670	-0.177943	9.077000
4.528137	-0.174190	9.123000
4.739360	-0.168618	9.169000
4.763883	-0.142930	9.559000
4.788850	-0.140900	9.605000
4.814072	-0.134968	9.651000
4.838989	-0.129327	9.697000
4.864020	-0.123094	9.743000
4.889265	-0.114130	9.789000
4.974223	-0.081683	9.836000
4.999093	-0.081463	9.992000
5.023708	-0.069579	10.038000
5.048604	-0.061209	10.085000
5.074123	-0.052088	10.131000
5.099122	-0.045371	10.177000
5.124433	-0.035523	10.224000
5.219505	-0.026791	10.270000
5.245188	-0.010801	10.446000
5.270508	-0.013130	10.492000
5.295147	-0.016977	10.538000
5.319919	-0.019805	10.585000
5.344178	-0.022635	10.630000
5.369295	-0.028980	10.677000
5.394690	-0.030435	10.723000
5.419456	-0.031489	10.769000
5.444837	-0.033288	10.815000
5.469698	-0.035966	10.861000
5.495618	-0.034533	10.907000
5.578460	-0.037852	10.954000
5.603264	-0.046317	11.109000
5.628567	-0.058080	11.154000
5.653274	-0.073057	11.201000
5.678532	-0.086669	11.247000
5.704017	-0.100572	11.293000
5.729113	-0.113799	11.339000
5.816297	-0.124669	11.386000
5.841330	-0.146423	11.547000
5.866281	-0.146563	11.593000
5.890448	-0.144134	11.639000
5.915315	-0.143229	11.685000
5.940262	-0.139816	11.731000
5.965602	-0.139517	11.777000
5.990729	-0.137357	11.823000
6.016317	-0.137228	11.870000
6.041085	-0.138752	11.916000
6.066189	-0.139102	11.962000
6.090902	-0.141050	12.008000
6.174986	-0.142485	12.055000
6.200352	-0.141080	12.210000
6.225412	-0.132730	12.257000
6.250503	-0.122846	12.303000
6.275999	-0.114595	12.349000
6.300445	-0.103150	12.395000
6.324777	-0.089578	12.440000
6.411491	-0.078808	12.486000
6.435833	-0.042729	12.647000
6.460801	-0.033264	12.691000
6.485604	-0.022454	12.737000
6.510897	-0.014464	12.783000
6.535621	-0.005274	12.828000
6.560776	-0.002120	12.875000
6.585261	0.001083	12.921000
6.609789	-0.000446	12.967000
6.634681	0.002228	13.013000
6.659945	-0.000262	13.060000
6.685261	-0.002885	13.105000
6.884105	-0.050589	13.152000
6.909787	-0.060519	13.520000
6.934835	-0.065012	13.566000
7.018731	-0.068405	13.612000
7.042799	-0.066381	13.767000
7.067729	-0.063658	13.812000
7.093046	-0.058950	13.859000
7.118403	-0.054513	13.905000
7.143317	-0.049064	13.951000
7.168731	-0.039549	13.998000
7.193667	-0.036457	14.044000
7.218545	-0.033549	14.090000
7.242857	-0.024242	14.136000
7.267825	-0.013683	14.182000
7.357280	0.022213	14.228000
7.381860	0.029260	14.393000
7.406422	0.038089	14.438000
7.431758	0.042646	14.485000
7.456733	0.048205	14.531000
7.481968	0.053815	14.576000
7.507769	0.059947	14.623000
7.718215	0.065727	14.668000
7.743272	0.111707	15.059000
7.768462	0.114450	15.105000
7.793511	0.117183	15.151000
7.818617	0.119194	15.196000
7.844267	0.117003	15.243000
7.868607	0.112953	15.289000
7.952957	0.107413	15.336000
7.977889	0.104125	15.493000
8.002888	0.107162	15.538000
8.028233	0.113233	15.585000
8.053412	0.119980	15.631000
8.078973	0.129559	15.677000
8.103890	0.137441	15.723000
8.199946	0.144204	15.770000
8.224752	0.153078	15.947000
8.249588	0.154344	15.993000
8.273584	0.153789	16.039000
8.298746	0.147702	16.085000
8.324170	0.143563	16.131000
8.348751	0.138223	16.177000
8.374022	0.133138	16.223000
8.399062	0.127027	16.269000
8.424306	0.119555	16.315000
8.449002	0.112512	16.361000
8.472893	0.107403	16.407000
8.558234	0.077508	16.454000
8.583176	0.065296	16.609000
8.608093	0.055311	16.655000
8.633594	0.043189	16.702000
8.658914	0.034197	16.748000
8.683146	0.019934	16.794000
8.707569	0.013007	16.839000
8.794617	-0.000031	16.886000
8.818992	-0.037631	17.047000
8.844799	-0.049515	17.092000
8.869417	-0.063598	17.138000
8.894979	-0.070408	17.184000
8.919943	-0.080907	17.231000
8.944814	-0.089943	17.276000
8.969702	-0.101887	17.323000
8.994316	-0.109452	17.368000
9.019117	-0.118817	17.415000
9.043914	-0.128282	17.461000
9.069266	-0.137988	17.507000
9.154258	-0.167983	17.554000
9.179080	-0.181977	17.709000
9.204272	-0.188048	17.755000
9.228690	-0.197132	17.802000
9.253423	-0.204099	17.848000
9.278162	-0.212422	17.894000
9.303268	-0.218697	17.940000
9.390446	-0.224387	17.984000
9.415332	-0.252564	18.146000
9.440423	-0.259246	18.192000
9.465249	-0.265392	18.238000
9.490244	-0.271863	18.284000
9.514450	-0.278655	18.330000
9.539150	-0.280402	18.375000
9.564158	-0.282163	18.421000
9.589506	-0.283360	18.468000
9.614843	-0.284656	18.514000
9.640039	-0.282573	18.560000
9.665414	-0.282493	18.607000
9.864317	-0.265581	18.653000
9.889861	-0.270716	19.021000
9.986384	-0.269971	19.066000
10.011870	-0.270236	19.246000
10.036561	-0.269851	19.292000
10.061320	-0.269791	19.338000
10.085881	-0.269985	19.385000
10.110245	-0.273249	19.431000
10.135722	-0.275922	19.477000
10.160382	-0.279721	19.522000
10.185611	-0.280312	19.568000
10.210649	-0.278080	19.614000
10.235428	-0.277078	19.660000
10.260419	-0.276653	19.705000
10.344206	-0.255698	19.752000
10.369611	-0.251498	19.908000
10.394703	-0.240017	19.954000
10.419975	-0.228306	20.000000
10.445045	-0.215149	20.047000
10.469996	-0.203257	20.092000
10.494245	-0.192622	20.138000
10.697080	-0.176827	20.184000
10.722493	-0.044437	20.558000
10.747390	-0.029070	20.605000
10.773092	-0.012400	20.652000
10.797380	0.003883	20.697000
10.821816	0.021238	20.743000
10.846645	0.038143	20.790000
10.932017	0.100921	20.836000
10.957357	0.114189	20.993000
10.982594	0.128273	21.038000
11.007880	0.143503	21.085000
11.032981	0.157742	21.132000
11.057749	0.171796	21.177000
11.081461	0.185539	21.224000
11.177711	0.197116	21.269000
11.202172	0.245703	21.446000
11.227629	0.257899	21.493000
11.252756	0.270308	21.539000
11.277405	0.283927	21.584000
11.303104	0.297750	21.631000
11.328072	0.312193	21.677000
11.352941	0.329359	21.724000
11.377503	0.344421	21.770000
11.402106	0.360299	21.816000
11.427462	0.376660	21.861000
11.451911	0.393232	21.907000
11.537154	0.449342	21.953000
11.561933	0.463806	22.108000
11.586832	0.479063	22.154000
11.611346	0.493127	22.201000
11.635857	0.510859	22.247000
11.661306	0.529478	22.294000
11.686517	0.543862	22.340000
11.773596	0.563376	22.386000
11.798205	0.625777	22.546000
11.824000	0.645932	22.593000
11.848914	0.663545	22.639000
11.873878	0.682096	22.685000
11.898556	0.698558	22.731000
11.923257	0.719218	22.777000
11.948278	0.730712	22.823000
11.973345	0.745785	22.869000
11.998376	0.764405	22.916000
12.023261	0.777999	22.962000
12.048607	0.793791	23.007000
12.132515	0.834969	23.054000
12.157701	0.839478	23.209000
12.182197	0.843775	23.256000
12.206768	0.850257	23.302000
12.231956	0.853050	23.348000
12.257452	0.851471	23.393000
12.282099	0.853160	23.439000
12.369595	0.849142	23.485000
12.394666	0.836204	23.646000
12.419081	0.831476	23.692000
12.443101	0.823155	23.737000
12.467892	0.813331	23.784000
12.492914	0.805410	23.830000
12.518266	0.797713	23.875000
12.543383	0.789057	23.921000
12.568279	0.781698	23.968000
12.593710	0.769813	24.014000
12.618752	0.760948	24.060000
12.643811	0.749889	24.107000
12.843628	0.702713	24.153000
12.868158	0.695995	24.521000
12.965376	0.694001	24.568000
12.990152	0.686529	24.747000
13.014642	0.684520	24.793000
13.039173	0.680277	24.838000
13.064683	0.681611	24.885000
13.089462	0.677159	24.930000
13.114479	0.674877	24.976000
13.139934	0.671893	25.022000
13.164671	0.669291	25.068000
13.189926	0.671984	25.115000
13.213701	0.671463	25.161000
13.239206	0.671503	25.207000
13.323711	0.673996	25.253000
13.349235	0.670367	25.409000
13.373991	0.672144	25.455000
13.399172	0.672264	25.501000
13.423896	0.675101	25.547000
13.447902	0.677724	25.593000
13.473052	0.678335	25.638000
13.676543	0.682675	25.685000
13.701014	0.691669	26.059000
13.725366	0.689643	26.105000
13.750152	0.685675	26.150000
13.775352	0.682766	26.197000
13.800234	0.680177	26.243000
13.825349	0.676023	26.288000
13.911183	0.657494	26.335000
13.936260	0.647319	26.493000
13.961029	0.643370	26.539000
13.985363	0.642764	26.585000
14.010446	0.642805	26.631000
14.035182	0.643550	26.677000
14.060411	0.645157	26.723000
14.155901	0.645327	26.769000
14.181776	0.647259	26.946000
14.207061	0.646724	26.993000
14.232150	0.647840	27.038000
14.257102	0.648505	27.085000
14.282334	0.651472	27.132000
14.307005	0.654266	27.178000
14.331218	0.658560	27.224000
14.356601	0.666097	27.270000
14.381580	0.672408	27.317000
14.406820	0.681896	27.362000
14.431722	0.689623	27.408000
14.516380	0.703816	27.454000
14.541051	0.700173	27.611000
14.565232	0.702902	27.657000
14.590385	0.706614	27.702000
14.615725	0.711867	27.748000
14.640627	0.721192	27.794000
14.665837	0.730054	27.840000
14.752459	0.743181	27.886000
14.777586	0.787824	28.047000
14.802426	0.797923	28.092000
14.826347	0.806605	28.138000
14.851288	0.810912	28.184000
14.876773	0.816259	28.230000
14.901979	0.814014	28.277000
14.926852	0.812756	28.323000
14.952215	0.815469	28.369000
14.977178	0.812507	28.415000
15.003205	0.810317	28.461000
15.027533	0.802811	28.507000
15.111462	0.782922	28.553000
15.136668	0.768529	28.709000
15.162040	0.756494	28.755000
15.187293	0.744325	28.802000
15.212055	0.729643	28.847000
15.237272	0.715320	28.893000
15.261485	0.694211	28.939000
15.349728	0.674537	28.985000
15.373331	0.601916	29.146000
15.397886	0.586305	29.192000
15.422884	0.571635	29.237000
15.447656	0.555999	29.283000
15.472714	0.544038	29.329000
15.498255	0.531796	29.375000
15.523437	0.522587	29.422000
15.548421	0.512072	29.468000
15.572819	0.512112	29.514000
15.597237	0.511561	29.560000
15.622284	0.515690	29.607000
15.821898	0.660643	29.652000
15.846753	0.677694	30.020000
15.872301	0.698868	30.066000
15.956631	0.718178	30.113000
15.980622	0.771507	30.267000
16.005330	0.780133	30.313000
16.030190	0.791952	30.360000
16.055229	0.799807	30.406000
16.080331	0.811173	30.451000
16.105380	0.817323	30.497000
16.131064	0.833196	30.544000
16.155657	0.857418	30.590000
16.180665	0.879168	30.636000
16.205254	0.907325	30.682000
16.295156	1.030011	30.728000
16.319586	1.061577	30.893000
16.343846	1.094619	30.938000
16.368669	1.120477	30.984000
16.393698	1.142430	31.030000
16.418585	1.159781	31.076000
16.443339	1.172171	31.122000
16.654940	1.189292	31.168000
16.679982	1.276687	31.559000
16.705389	1.279477	31.605000
16.729901	1.283654	31.650000
16.755716	1.280411	31.697000
16.780439	1.273853	31.743000
16.805411	1.268182	31.789000
16.890234	1.271709	31.835000
16.914744	1.270715	31.993000
16.940150	1.275493	32.039000
16.964658	1.280080	32.085000
16.990075	1.282669	32.131000
17.015142	1.289826	32.177000
17.040509	1.296247	32.223000
17.136575	1.302925	32.269000
17.161391	1.342658	32.446000
17.186347	1.359514	32.492000
17.210600	1.372423	32.538000
17.235502	1.383854	32.585000
17.260373	1.395030	32.631000
17.285640	1.410169	32.677000
17.310682	1.420565	32.723000
17.336116	1.435225	32.769000
17.360986	1.453132	32.815000
17.386420	1.472090	32.862000
17.411207	1.488756	32.907000
17.494344	1.545769	32.954000
17.519607	1.548028	33.109000
17.544407	1.551954	33.155000
17.569726	1.552555	33.201000
17.594611	1.548296	33.247000
17.619669	1.537145	33.293000
17.644527	1.523541	33.338000
17.732164	1.509412	33.385000
17.756642	1.448827	33.547000
17.781475	1.433027	33.592000
17.805998	1.415044	33.638000
17.831254	1.400109	33.684000
17.856179	1.384104	33.730000
17.881333	1.368282	33.776000
17.905714	1.353624	33.822000
17.930585	1.336447	33.868000
17.954539	1.322509	33.913000
17.979808	1.308101	33.959000
18.004798	1.293359	34.004000
18.089600	1.248581	34.050000
18.114660	1.230162	34.207000
18.140252	1.214223	34.253000
18.164689	1.198298	34.300000
18.189068	1.184634	34.346000
18.213673	1.172730	34.392000
18.238842	1.162120	34.437000
18.326998	1.155093	34.482000
18.351775	1.139846	34.646000
18.376854	1.144604	34.692000
18.401879	1.148463	34.738000
18.427407	1.158268	34.784000
18.451967	1.171735	34.830000
18.476745	1.183580	34.876000
18.500610	1.196020	34.922000
18.526322	1.208417	34.968000
18.551267	1.221851	35.014000
18.576466	1.235443	35.060000
18.601299	1.248321	35.106000
18.800793	1.317346	35.151000
18.826046	1.318755	35.520000
18.850919	1.326241	35.566000
18.934412	1.330606	35.613000
18.959183	1.358644	35.768000
18.984938	1.365585	35.814000
19.009965	1.375620	35.860000
19.035119	1.384709	35.906000
19.060126	1.395204	35.953000
19.085224	1.408017	35.998000
19.109952	1.420845	36.045000
19.134769	1.434894	36.090000
19.159650	1.444939	36.137000
19.184535	1.458227	36.184000
19.273008	1.472210	36.229000
19.297324	1.474107	36.392000
19.322540	1.471759	36.438000
19.347905	1.470603	36.484000
19.372947	1.477275	36.530000
19.398120	1.480052	36.575000
19.422939	1.480293	36.622000
19.634056	1.482755	36.668000
19.658789	1.497119	37.059000
19.684015	1.499782	37.104000
19.709029	1.504347	37.151000
19.734208	1.502449	37.197000
19.758800	1.498536	37.243000
19.783311	1.495863	37.289000
19.868576	1.466709	37.335000
19.893814	1.453021	37.493000
19.919168	1.437851	37.538000
19.944193	1.423066	37.585000
19.968893	1.405244	37.630000
19.993841	1.387291	37.677000
20.017623	1.372532	37.722000
20.114811	1.353564	37.769000
20.139239	1.284717	37.947000
20.164473	1.267021	37.993000
20.189368	1.252145	38.039000
20.214399	1.242026	38.085000
20.239904	1.233044	38.131000
20.264962	1.227006	38.178000
20.290196	1.221249	38.223000
20.314453	1.217033	38.269000
20.339432	1.209366	38.315000
20.363867	1.209077	38.362000
20.389353	1.210995	38.407000
20.473836	1.216168	38.454000
20.499046	1.212405	38.609000
20.524537	1.219870	38.655000
20.549488	1.224467	38.702000
20.574098	1.226267	38.748000
20.598760	1.235633	38.795000
20.623550	1.239596	38.841000
20.710164	1.248601	38.887000
20.734949	1.275713	39.046000
20.760402	1.282509	39.092000
20.785460	1.286906	39.138000
20.810210	1.287777	39.184000
20.835696	1.286921	39.231000
20.860570	1.280270	39.277000
20.884048	1.271463	39.323000
20.909409	1.256156	39.368000
20.934306	1.242439	39.415000
20.959410	1.231035	39.461000
20.985099	1.214774	39.507000
21.070128	1.163649	39.553000
21.094711	1.144204	39.709000
21.119254	1.130351	39.755000
21.143528	1.114473	39.801000
21.168553	1.096991	39.847000
21.193517	1.080726	39.893000
21.218882	1.059535	39.938000
21.305872	1.043314	39.984000
21.331368	0.986368	40.146000
21.356018	0.973059	40.192000
21.381076	0.959576	40.238000
21.405313	0.944276	40.284000
21.429954	0.927975	40.329000
21.455163	0.912755	40.376000
21.479891	0.899877	40.422000
21.505440	0.885010	40.468000
21.530600	0.875264	40.514000
21.555536	0.864109	40.560000
21.580312	0.852620	40.606000
21.779154	0.771017	40.651000
21.803973	0.758772	41.020000
21.828700	0.749768	41.066000
21.912967	0.745120	41.112000
21.937976	0.735154	41.267000
21.963220	0.733396	41.313000
21.988324	0.729372	41.359000
22.012934	0.728468	41.405000
22.037072	0.730216	41.451000
22.062156	0.733056	41.497000
22.087447	0.733859	41.543000
22.112216	0.738074	41.588000
22.137470	0.742371	41.635000
22.162514	0.752405	41.681000
22.251657	0.819601	41.727000
22.277372	0.843954	41.893000
22.302633	0.876896	41.940000
22.327234	0.908581	41.985000
22.352735	0.942468	42.032000
22.377549	0.976457	42.078000
22.402176	1.010561	42.124000
22.613469	1.047772	42.170000
22.638834	1.335069	42.559000
22.663010	1.368622	42.604000
22.687941	1.397746	42.650000
22.712152	1.427340	42.697000
22.737346	1.456649	42.742000
22.762959	1.486949	42.789000
22.848533	1.611733	42.836000
22.873873	1.640849	42.992000
22.898554	1.671762	43.038000
22.922896	1.698044	43.085000
22.947715	1.721252	43.131000
22.972454	1.737974	43.177000
22.997888	1.752961	43.224000
23.093368	1.761343	43.269000
23.118611	1.762579	43.446000
23.143661	1.755152	43.492000
23.168716	1.748183	43.538000
23.193762	1.740473	43.584000
23.218724	1.731771	43.630000
23.243434	1.726060	43.676000
23.267789	1.717065	43.722000
23.292821	1.707650	43.769000
23.318131	1.697694	43.815000
23.343559	1.688889	43.861000
23.368655	1.677749	43.908000
23.453223	1.651519	43.954000
23.477622	1.637010	44.109000
23.501988	1.626040	44.155000
23.526873	1.620599	44.201000
23.551902	1.611133	44.247000
23.576854	1.607510	44.293000
23.601881	1.607860	44.338000
23.689411	1.614202	44.385000
23.714614	1.687394	44.546000
23.740189	1.711671	44.592000
23.764563	1.741956	44.638000
23.789488	1.767644	44.684000
23.813773	1.793530	44.730000
