Sample	2mm tape 
date	08/01/2025
	
Temperature (K)	77.00
Angle (deg.)	0.000000
field / T	0.450000
	
		
Approx. trace time (s)	120.0	
		
Current / A	V1  -sample/ uV	time/s
-0.018320	1.484725	0.000000
-0.019062	1.504298	0.153000
-0.019043	1.509964	0.199000
-0.018619	1.506623	0.354000
-0.018509	1.508989	0.400000
-0.018582	1.510298	0.446000
-0.018161	1.517986	0.493000
-0.018625	1.509049	0.539000
-0.017901	1.498929	0.585000
-0.018411	1.507174	0.631000
-0.018136	1.503468	0.677000
-0.018643	1.496563	0.723000
0.004153	1.491220	0.769000
0.028116	1.485679	0.815000
0.054703	1.476298	0.861000
0.078772	1.479922	0.907000
0.102306	1.467523	0.952000
0.127531	1.463848	0.998000
0.151606	1.458924	1.045000
0.356428	1.450578	1.091000
0.381133	1.403475	1.465000
0.405204	1.385156	1.511000
0.429556	1.376780	1.557000
0.455152	1.376345	1.602000
0.480066	1.368010	1.648000
0.505472	1.363652	1.694000
0.530450	1.361489	1.742000
0.556368	1.348098	1.788000
0.581138	1.339712	1.834000
0.605812	1.329591	1.880000
0.629991	1.321177	1.926000
0.654929	1.315056	1.972000
0.679926	1.306277	2.017000
0.704684	1.300994	2.064000
0.729797	1.290857	2.110000
0.755554	1.304879	2.156000
0.838671	1.299383	2.202000
0.863758	1.273831	2.358000
1.063149	1.244157	2.403000
1.087922	1.250098	2.773000
1.113284	1.232837	2.818000
1.138089	1.232136	2.864000
1.163433	1.228707	2.909000
1.187864	1.222702	2.955000
1.212580	1.230950	3.001000
1.236688	1.206989	3.046000
1.261447	1.202708	3.092000
1.286361	1.195026	3.138000
1.311830	1.187667	3.184000
1.337393	1.171746	3.230000
1.432396	1.162413	3.277000
1.457517	1.135506	3.453000
1.541272	1.098310	3.499000
1.566271	1.087628	3.655000
1.591212	1.081659	3.701000
1.616269	1.081289	3.747000
1.641590	1.062773	3.794000
1.666620	1.058845	3.840000
1.692339	1.053877	3.886000
1.717210	1.050060	3.933000
1.742345	1.034071	3.978000
1.766990	1.031296	4.025000
1.791403	1.036609	4.070000
1.816214	1.029703	4.116000
1.841640	1.024006	4.163000
1.866632	1.020514	4.209000
1.891497	1.014133	4.255000
1.916789	1.017339	4.301000
1.942324	1.017743	4.347000
2.028563	1.012723	4.393000
2.053066	1.022889	4.553000
2.136461	1.044049	4.599000
2.161948	1.051940	4.755000
2.187016	1.056954	4.801000
2.212312	1.062701	4.847000
2.237694	1.064956	4.893000
2.263228	1.068419	4.939000
2.287831	1.074975	4.986000
2.312210	1.073555	5.032000
2.337337	1.064163	5.079000
2.362016	1.079605	5.125000
2.387334	1.082376	5.171000
2.412042	1.076572	5.216000
2.437459	1.076447	5.262000
2.462095	1.090348	5.307000
2.487201	1.090898	5.353000
2.510968	1.088917	5.399000
2.535297	1.088816	5.445000
2.623306	1.097364	5.490000
2.648034	1.098188	5.652000
2.733037	1.109577	5.699000
2.757796	1.108116	5.854000
2.782860	1.114677	5.900000
2.808131	1.116583	5.946000
2.832156	1.121159	5.992000
2.856971	1.124007	6.038000
2.881525	1.134422	6.084000
2.907146	1.131144	6.130000
2.932346	1.133537	6.177000
2.957197	1.137161	6.222000
2.982676	1.135778	6.269000
3.007917	1.141094	6.315000
3.032382	1.139756	6.361000
3.056649	1.137555	6.407000
3.082100	1.146802	6.453000
3.106577	1.152955	6.498000
3.131657	1.153420	6.545000
3.334459	1.157963	6.591000
3.358960	1.180166	6.966000
3.384196	1.194143	7.012000
3.409241	1.186157	7.058000
3.434368	1.199326	7.103000
3.459213	1.196904	7.148000
3.484274	1.193375	7.195000
3.509160	1.184018	7.241000
3.533614	1.192816	7.287000
3.558265	1.195950	7.334000
3.583734	1.192624	7.380000
3.609261	1.194916	7.426000
3.634231	1.189228	7.472000
3.659258	1.186876	7.518000
3.684489	1.181868	7.564000
3.708954	1.192462	7.610000
3.733564	1.183957	7.656000
3.817033	1.187971	7.702000
3.842259	1.194956	7.857000
4.041590	1.214929	7.903000
4.066629	1.214388	8.271000
4.092317	1.225558	8.316000
4.116886	1.217906	8.363000
4.141818	1.335526	8.409000
4.165911	1.230322	8.455000
4.190641	1.239680	8.501000
4.216182	1.245435	8.547000
4.241076	1.254086	8.593000
4.266427	1.260774	8.639000
4.291203	1.272913	8.686000
4.316496	1.271016	8.732000
4.411641	1.281681	8.778000
4.436572	1.314722	8.953000
4.520062	1.349776	8.999000
4.545055	1.358799	9.156000
4.570904	1.368080	9.202000
4.595719	1.381713	9.248000
4.621152	1.391575	9.294000
4.645684	1.401493	9.340000
4.671177	1.417270	9.386000
4.695243	1.432410	9.432000
4.720315	1.443142	9.479000
4.745407	1.458519	9.524000
4.770379	1.471283	9.571000
4.795873	1.482793	9.618000
4.820803	1.494339	9.663000
4.846600	1.503090	9.710000
4.871379	1.520463	9.756000
4.896805	1.531357	9.803000
4.921242	1.539834	9.849000
5.006167	1.551029	9.895000
5.031413	1.585329	10.053000
5.115857	1.616628	10.099000
5.141380	1.619547	10.255000
5.166352	1.626563	10.301000
5.191158	1.626219	10.347000
5.215840	1.643633	10.392000
5.240041	1.657569	10.439000
5.265336	1.665751	10.485000
5.290297	1.674785	10.530000
5.315560	1.680665	10.576000
5.340593	1.688988	10.623000
5.365585	1.702117	10.669000
5.391037	1.712752	10.716000
5.415996	1.725391	10.762000
5.440196	1.737212	10.808000
5.465439	1.739766	10.854000
5.490526	1.744859	10.901000
5.515929	1.751466	10.947000
5.602205	1.757593	10.994000
5.627646	1.758079	11.153000
5.711792	1.771693	11.199000
5.737721	1.770384	11.355000
5.762091	1.770762	11.401000
5.786549	1.772972	11.447000
5.811397	1.769137	11.494000
5.836607	1.781423	11.540000
5.861885	1.780589	11.586000
5.887009	1.786731	11.632000
5.912074	1.789411	11.677000
5.936797	1.792883	11.724000
5.962096	1.790376	11.770000
5.986329	1.805414	11.815000
6.011348	1.807340	11.863000
6.036582	1.818103	11.909000
6.061546	1.810661	11.956000
6.086786	1.822197	12.001000
6.111807	1.829426	12.047000
6.313247	1.829304	12.092000
6.338660	1.837376	12.465000
6.363580	1.838115	12.512000
6.388826	1.843852	12.558000
6.413623	1.840713	12.604000
6.438978	1.847719	12.650000
6.463418	1.844827	12.696000
6.487533	1.851631	12.742000
6.512762	1.837599	12.789000
6.538188	1.834631	12.834000
6.563170	1.837720	12.881000
6.588451	1.828298	12.927000
6.613460	1.820937	12.973000
6.638254	1.827883	13.019000
6.663511	1.827414	13.065000
6.688415	1.805970	13.112000
6.712578	1.819047	13.158000
6.797008	1.816773	13.203000
6.822414	1.799464	13.359000
7.022054	1.767274	13.405000
7.047125	1.765886	13.773000
7.072294	1.765916	13.820000
7.096832	1.754611	13.866000
7.121324	1.753893	13.911000
7.146064	1.736960	13.958000
7.171292	1.741310	14.005000
7.196718	1.743935	14.051000
7.221532	1.729853	14.097000
7.247016	1.732094	14.143000
7.272018	1.724856	14.188000
7.296780	1.713498	14.235000
7.389115	1.715810	14.281000
7.414243	1.694107	14.453000
7.499007	1.672301	14.500000
7.524539	1.667197	14.655000
7.549447	1.663937	14.700000
7.574270	1.648553	14.746000
7.598571	1.639317	14.792000
7.623210	1.638715	14.838000
7.648205	1.629357	14.884000
7.673488	1.626873	14.930000
7.698666	1.624079	14.977000
7.724006	1.614195	15.022000
7.749014	1.611580	15.069000
7.774632	1.607240	15.115000
7.798849	1.601420	15.162000
7.823505	1.595631	15.208000
7.848670	1.592844	15.254000
7.873992	1.585758	15.300000
7.899238	1.582391	15.347000
7.985808	1.579205	15.393000
8.010978	1.568448	15.553000
8.095919	1.555461	15.599000
8.120574	1.557267	15.756000
8.145455	1.557852	15.801000
8.170019	1.558413	15.847000
8.195430	1.556476	15.894000
8.220288	1.559050	15.940000
8.245465	1.559475	15.986000
8.270640	1.562621	16.032000
8.295905	1.551751	16.079000
8.320925	1.564447	16.124000
8.345436	1.567460	16.171000
8.370171	1.575803	16.217000
8.394614	1.573264	16.261000
8.419639	1.576400	16.308000
8.444476	1.580740	16.354000
8.469649	1.578039	16.399000
8.495127	1.579897	16.446000
8.581568	1.580558	16.492000
8.607409	1.584359	16.653000
8.690520	1.584051	16.699000
8.715485	1.590795	16.855000
8.740658	1.594535	16.901000
8.765936	1.589820	16.947000
8.791396	1.599522	16.993000
8.816117	1.582970	17.040000
8.841839	1.598245	17.086000
8.866641	1.588705	17.132000
8.891091	1.595580	17.178000
8.915278	1.594384	17.224000
8.940307	1.593318	17.270000
8.965454	1.596372	17.316000
8.990788	1.602222	17.362000
9.015909	1.604463	17.408000
9.041277	1.604095	17.455000
9.066139	1.608082	17.501000
9.091281	1.606598	17.547000
9.292685	1.604817	17.593000
9.318084	1.643562	17.965000
9.342881	1.639616	18.011000
9.368081	1.647929	18.058000
9.392337	1.642169	18.104000
9.417554	1.635845	18.151000
9.442443	1.661581	18.197000
9.468030	1.646804	18.244000
9.493239	1.660026	18.290000
9.518658	1.645314	18.336000
9.544067	1.643885	18.383000
9.568986	1.631761	18.429000
9.594074	1.648417	18.475000
9.618877	1.650431	18.522000
9.643640	1.649024	18.568000
9.668561	1.649897	18.614000
9.693624	1.638857	18.661000
9.778230	1.646571	18.707000
9.803302	1.631303	18.862000
10.002776	1.633451	18.908000
10.027824	1.625808	19.276000
10.052372	1.624345	19.322000
10.077184	1.635662	19.369000
10.102293	1.639645	19.415000
10.127462	1.640235	19.462000
10.152584	1.618975	19.508000
10.177815	1.626616	19.554000
10.203240	1.635905	19.601000
10.228012	1.637303	19.647000
10.253810	1.632679	19.693000
10.278171	1.641218	19.739000
10.369142	1.647766	19.785000
10.394494	1.663494	19.953000
10.478740	1.688262	20.000000
10.503903	1.698665	20.155000
10.528810	1.714510	20.201000
10.553351	1.723999	20.247000
10.578143	1.726250	20.294000
10.603252	1.728359	20.340000
10.628462	1.739766	20.387000
10.654147	1.746354	20.433000
10.679235	1.746963	20.478000
10.704191	1.749973	20.525000
10.728946	1.752325	20.570000
10.752835	1.754998	20.616000
10.777872	1.756898	20.663000
10.802895	1.757181	20.709000
10.828089	1.748827	20.755000
10.853151	1.744813	20.801000
10.878211	1.743526	20.847000
10.964919	1.748433	20.893000
10.989897	1.741113	21.053000
11.073666	1.735934	21.098000
11.098470	1.734748	21.254000
11.123730	1.730716	21.301000
11.148864	1.734051	21.347000
11.173730	1.733849	21.393000
11.199291	1.727177	21.439000
11.224619	1.719656	21.486000
11.250140	1.727531	21.533000
11.274863	1.722746	21.579000
11.299297	1.727772	21.625000
11.323970	1.726667	21.671000
11.349318	1.730114	21.718000
11.374792	1.726455	21.763000
11.399944	1.719575	21.811000
11.425292	1.725179	21.856000
11.450292	1.723963	21.903000
11.475218	1.726355	21.948000
11.560692	1.728171	21.994000
11.585249	1.732815	22.153000
11.669370	1.730009	22.199000
11.694481	1.722034	22.355000
11.719716	1.722226	22.400000
11.745108	1.710496	22.447000
11.770437	1.714670	22.493000
11.795357	1.692562	22.540000
11.819830	1.701970	22.586000
11.844269	1.690169	22.631000
11.868979	1.684006	22.678000
11.894011	1.666821	22.723000
11.919214	1.685607	22.770000
11.944699	1.678591	22.815000
11.969474	1.678217	22.862000
11.994977	1.675103	22.908000
12.019790	1.681236	22.954000
12.043959	1.679858	23.000000
12.068692	1.675033	23.046000
12.271418	1.688771	23.092000
12.295840	1.735668	23.465000
12.320212	1.760011	23.511000
12.345610	1.763307	23.558000
12.370752	1.764948	23.604000
12.395890	1.765130	23.650000
12.421473	1.773881	23.696000
12.445922	1.771671	23.742000
12.471668	1.780027	23.788000
12.496416	1.805257	23.835000
12.520566	1.807795	23.881000
12.545654	1.807916	23.927000
12.570756	1.816666	23.972000
12.596434	1.832059	24.020000
12.621265	1.824506	24.066000
12.646929	1.848761	24.112000
12.671632	1.857167	24.158000
12.754849	1.866084	24.204000
12.780085	1.897815	24.359000
12.978875	1.995328	24.405000
13.004191	1.995492	24.774000
13.029257	2.012028	24.819000
13.054465	2.020286	24.865000
13.079952	2.044813	24.912000
13.105035	2.047517	24.958000
13.130278	2.058864	25.005000
13.155440	2.072185	25.050000
13.179451	2.072568	25.097000
13.203802	2.087009	25.143000
13.229454	2.095771	25.188000
13.254523	2.103333	25.235000
13.347670	2.111434	25.281000
13.373120	2.153101	25.453000
13.456277	2.184814	25.499000
13.481550	2.193479	25.655000
13.506934	2.203142	25.701000
13.532205	2.210314	25.748000
13.557683	2.219530	25.794000
13.583021	2.235514	25.841000
13.608034	2.244325	25.887000
13.633082	2.248060	25.934000
13.658370	2.261860	25.980000
13.682463	2.266420	26.026000
13.707858	2.267320	26.072000
13.732284	2.289122	26.118000
13.757794	2.291180	26.165000
13.782902	2.304495	26.211000
13.807813	2.309377	26.256000
13.833058	2.318002	26.303000
13.857752	2.324836	26.348000
13.943583	2.329229	26.395000
13.968451	2.361060	26.553000
14.052224	2.378393	26.599000
14.077541	2.384596	26.755000
14.102698	2.394140	26.801000
14.128121	2.396466	26.847000
14.152901	2.402936	26.893000
14.177613	2.402324	26.938000
14.202400	2.407738	26.986000
14.227326	2.411828	27.031000
14.252541	2.409371	27.079000
14.277566	2.408375	27.124000
14.302902	2.407318	27.171000
14.327649	2.400863	27.217000
14.353329	2.409411	27.263000
14.378904	2.410913	27.309000
14.403819	2.397765	27.356000
14.428180	2.385835	27.402000
14.452586	2.393887	27.448000
14.538178	2.386881	27.495000
14.563410	2.371014	27.653000
14.648638	2.395349	27.699000
14.673834	2.393887	27.855000
14.698903	2.406100	27.901000
14.723607	2.416408	27.947000
14.748312	2.419219	27.994000
14.772882	2.427615	28.040000
14.797966	2.431591	28.087000
14.823518	2.442428	28.132000
14.848803	2.447719	28.179000
14.874059	2.458716	28.226000
14.899144	2.465056	28.272000
14.924834	2.478782	28.317000
14.949410	2.488170	28.363000
14.973473	2.494771	28.410000
14.999610	2.507744	28.456000
15.024311	2.510808	28.503000
15.049825	2.519217	28.548000
15.250161	2.527459	28.595000
15.275233	2.569685	28.964000
15.300809	2.574865	29.012000
15.325598	2.580300	29.057000
15.351119	2.588492	29.104000
15.375958	2.595639	29.150000
15.401109	2.602025	29.196000
15.425617	2.606901	29.242000
15.450335	2.601822	29.289000
15.475544	2.612447	29.335000
15.500984	2.616803	29.382000
15.525885	2.612336	29.428000
15.551113	2.619220	29.474000
15.576577	2.616702	29.520000
15.601932	2.612366	29.567000
15.627298	2.615437	29.612000
15.651957	2.624501	29.660000
15.734968	2.616430	29.705000
15.760452	2.630746	29.861000
15.959378	2.651576	29.907000
15.984890	2.656104	30.275000
16.009922	2.663232	30.321000
16.035001	2.660296	30.367000
16.060315	2.663485	30.413000
16.085300	2.673504	30.460000
16.109517	2.677639	30.505000
16.134451	2.679040	30.551000
16.159272	2.683690	30.597000
16.184948	2.677628	30.644000
16.210054	2.692733	30.691000
16.235615	2.691995	30.737000
16.327125	2.696848	30.783000
16.351679	2.711478	30.953000
16.436199	2.720505	30.999000
16.461378	2.717133	31.155000
16.486501	2.733396	31.201000
16.511760	2.733406	31.246000
16.536493	2.739406	31.293000
16.560898	2.736605	31.339000
16.585443	2.744967	31.384000
16.610116	2.747596	31.431000
16.635687	2.750381	31.477000
16.660426	2.762715	31.523000
16.685403	2.760835	31.569000
16.711027	2.766790	31.614000
16.735593	2.765445	31.661000
16.760637	2.776015	31.706000
16.785251	2.781145	31.753000
16.810172	2.784992	31.799000
16.835299	2.790411	31.845000
16.922748	2.794859	31.892000
16.947808	2.800819	32.053000
17.032003	2.823410	32.099000
17.058085	2.826428	32.255000
17.082803	2.827747	32.301000
17.107407	2.847094	32.347000
17.131888	2.852373	32.393000
17.156788	2.859079	32.440000
17.182411	2.863166	32.486000
17.207405	2.874760	32.533000
17.232764	2.882711	32.579000
17.257457	2.895931	32.625000
17.282730	2.902224	32.671000
17.307653	2.920951	32.716000
17.332344	2.927997	32.763000
17.357002	2.947219	32.810000
17.381989	2.954178	32.855000
17.407300	2.971147	32.902000
17.432951	2.984543	32.948000
17.518691	3.005954	32.994000
17.543816	3.055803	33.153000
17.628147	3.091517	33.199000
17.652644	3.102199	33.355000
17.677462	3.109660	33.401000
17.702982	3.123693	33.447000
17.727996	3.121105	33.493000
17.753370	3.133753	33.540000
17.778336	3.137428	33.586000
17.803924	3.142538	33.633000
17.828880	3.145500	33.679000
17.854204	3.147562	33.725000
17.878903	3.150697	33.772000
17.903643	3.156824	33.819000
17.928716	3.150586	33.864000
17.953255	3.155489	33.910000
17.978327	3.131664	33.956000
18.003861	3.141926	34.003000
18.028732	3.146021	34.049000
18.229347	3.138767	34.095000
18.254531	3.091882	34.465000
18.280031	3.090795	34.511000
18.304883	3.074735	34.558000
18.329169	3.074765	34.604000
18.353831	3.071889	34.649000
18.378884	3.053512	34.696000
18.404426	3.043992	34.743000
18.429714	3.040596	34.789000
18.454914	3.029759	34.836000
18.479974	3.012723	34.882000
18.505368	3.002619	34.929000
18.530823	2.996384	34.975000
18.555562	2.984244	35.021000
18.580262	2.968544	35.068000
18.604832	2.966381	35.113000
18.629649	2.950377	35.160000
18.714438	2.948731	35.205000
18.739874	2.921702	35.361000
18.938761	2.852761	35.407000
18.963820	2.846099	35.775000
18.989128	2.835738	35.821000
19.013855	2.821245	35.867000
19.038742	2.817004	35.914000
19.063586	2.809063	35.961000
19.088250	2.803543	36.006000
19.113669	2.785557	36.052000
19.138600	2.778520	36.098000
19.164429	2.773313	36.144000
19.189122	2.761252	36.191000
19.214353	2.746467	36.236000
19.305505	2.739111	36.282000
19.330870	2.682227	36.453000
19.415287	2.649229	36.499000
19.440156	2.633513	36.655000
19.465876	2.621072	36.701000
19.490233	2.611694	36.747000
19.514737	2.610043	36.793000
19.539734	2.596021	36.840000
19.564803	2.594632	36.886000
19.590208	2.580298	36.931000
19.615704	2.585133	36.979000
19.641044	2.579668	37.025000
19.666284	2.576486	37.071000
19.691282	2.579102	37.118000
19.715408	2.583538	37.164000
19.739893	2.580348	37.210000
19.764713	2.582589	37.256000
19.790032	2.590852	37.302000
19.815825	2.602683	37.348000
19.901317	2.613449	37.394000
19.926949	2.649077	37.553000
20.010860	2.697741	37.598000
20.035628	2.726534	37.755000
20.060000	2.735274	37.801000
20.085088	2.754338	37.847000
20.110028	2.765923	37.893000
20.135530	2.779204	37.939000
20.160858	2.786310	37.985000
20.186314	2.809957	38.031000
20.211350	2.819047	38.078000
20.235889	2.830071	38.124000
20.259979	2.834691	38.170000
20.285200	2.854665	38.216000
20.309474	2.863347	38.261000
20.335108	2.882305	38.307000
20.360394	2.895353	38.354000
20.385386	2.899618	38.400000
20.410911	2.929091	38.446000
20.497553	2.935395	38.493000
20.522878	2.995257	38.653000
20.605819	3.036743	38.699000
20.631136	3.031691	38.854000
20.656549	3.058114	38.901000
20.681720	3.065322	38.947000
20.706962	3.073586	38.994000
20.731828	3.067779	39.040000
20.757022	3.080370	39.085000
20.781684	3.081962	39.131000
20.806411	3.080370	39.178000
20.831105	3.098553	39.224000
20.856636	3.092341	39.271000
20.881590	3.099230	39.317000
20.907083	3.094940	39.363000
20.932567	3.092614	39.410000
20.957702	3.094267	39.455000
20.982938	3.088979	39.503000
21.007502	3.108158	39.548000
21.208380	3.103042	39.595000
21.233667	3.135216	39.966000
21.257877	3.136415	40.012000
21.282558	3.138240	40.058000
21.307003	3.142476	40.103000
21.332977	3.146525	40.150000
21.358066	3.151489	40.196000
21.382995	3.153895	40.242000
21.408502	3.159632	40.289000
21.433899	3.161786	40.335000
21.458953	3.165471	40.381000
21.483552	3.180177	40.428000
21.508320	3.172740	40.474000
21.533001	3.177912	40.521000
21.558519	3.186951	40.567000
21.583080	3.198293	40.612000
21.608410	3.191480	40.659000
21.692624	3.204769	40.705000
21.717429	3.222355	40.859000
21.916457	3.261454	40.906000
21.941211	3.267848	41.274000
21.966484	3.263961	41.320000
21.991784	3.266853	41.366000
22.016763	3.269128	41.413000
22.041828	3.268370	41.459000
22.066838	3.261454	41.504000
22.092314	3.257279	41.551000
22.116469	3.266742	41.596000
22.141039	3.261454	41.643000
22.166110	3.258285	41.689000
22.191252	3.250303	41.735000
22.284496	3.245970	41.781000
22.309452	3.246587	41.953000
22.393840	3.260013	41.998000
22.418767	3.262511	42.155000
22.443223	3.267636	42.201000
22.467983	3.273056	42.247000
22.493431	3.276630	42.293000
22.518850	3.276772	42.339000
22.544457	3.284225	42.385000
22.569825	3.281061	42.431000
22.594770	3.296230	42.478000
22.619076	3.309358	42.524000
22.643665	3.314405	42.570000
22.668604	3.322487	42.616000
22.693871	3.330699	42.663000
22.719029	3.335160	42.709000
22.745129	3.342176	42.755000
22.770026	3.347750	42.802000
22.795051	3.357688	42.848000
22.880963	3.366031	42.894000
22.906073	3.383158	43.053000
22.989409	3.384766	43.099000
23.014888	3.385853	43.255000
23.040393	3.384837	43.302000
23.065333	3.385408	43.348000
23.090597	3.389869	43.394000
23.115748	3.393039	43.441000
23.140983	3.394786	43.487000
23.165856	3.395861	43.533000
23.190238	3.394136	43.579000
23.215993	3.395442	43.626000
23.240681	3.404407	43.672000
23.265875	3.407915	43.718000
